MFC-3045 Multiple measurements file: 6009map1.dam (WMFCTOOL v9.0)
=================================================================



2013-12-20  14:06:46 -> meas. 1/33 
-------------------------------------

Measurement parameters (Pr/NCY/MCF/MDA/Period) : 
32	80	638003449	900	60	
Mean value:
63.8020554	Mhz
1.49853612	T
Max value:	at probe #:
63.8102570	9
Min value:	at probe #:
63.7904797	32
diff max-min:	ppm of mean value
310.0


	      NMR f. [MHz]	       RMS [Hz]	   Valid cycles

  1	   63.8020238	          1.8	           80 
  2	   63.8028369	          1.2	           80 
  3	   63.8038582	          1.2	           80 
  4	   63.8047657	          1.2	           80 
  5	   63.8055668	          1.8	           80 
  6	   63.8065496	          1.8	           80 
  7	   63.8079239	          1.8	           80 
  8	   63.8094054	          1.8	           80 
  9	   63.8102570	          1.2	           80 
 10	   63.8099250	          3.6	           80 
 11	   63.8087498	          2.4	           80 
 12	   63.8074441	          2.4	           80 
 13	   63.8063203	          1.2	           80 
 14	   63.8050235	          1.2	           80 
 15	   63.8033360	          2.4	           80 
 16	   63.8018301	          1.8	           80 
 17	   63.8011940	          1.2	           80 
 18	   63.8014067	          1.2	           80 
 19	   63.8017204	          1.8	           80 
 20	   63.8015941	          1.8	           80 
 21	   63.8013632	          1.2	           80 
 22	   63.8015334	          1.2	           80 
 23	   63.8017914	          1.8	           80 
 24	   63.8013339	          1.8	           80 
 25	   63.7998933	          1.8	           80 
 26	   63.7979788	          1.8	           80 
 27	   63.7962674	          1.2	           80 
 28	   63.7950220	          2.4	           80 
 29	   63.7939874	          1.8	           80 
 30	   63.7928339	          1.8	           80 
 31	   63.7915585	          1.8	           80 
 32	   63.7904797	          1.8	           80 


2013-12-20  14:07:01 -> meas. 2/33 
-------------------------------------

Measurement parameters (Pr/NCY/MCF/MDA/Period) : 
32	80	638003449	900	60	
Mean value:
63.8019536	Mhz
1.49853373	T
Max value:	at probe #:
63.8102417	9
Min value:	at probe #:
63.7904434	32
diff max-min:	ppm of mean value
310.3


	      NMR f. [MHz]	       RMS [Hz]	   Valid cycles

  1	   63.8020502	          2.4	           80 
  2	   63.8028903	          1.2	           80 
  3	   63.8039320	          1.2	           80 
  4	   63.8048524	          1.8	           80 
  5	   63.8056522	          2.4	           80 
  6	   63.8066221	          2.4	           80 
  7	   63.8079707	          2.4	           80 
  8	   63.8094214	          1.8	           80 
  9	   63.8102417	          1.2	           80 
 10	   63.8098776	          3.0	           80 
 11	   63.8086736	          2.4	           80 
 12	   63.8073489	          3.0	           80 
 13	   63.8062256	          1.2	           80 
 14	   63.8049528	          1.2	           80 
 15	   63.8032923	          1.8	           80 
 16	   63.8017994	          1.8	           80 
 17	   63.8011393	          1.2	           80 
 18	   63.8012955	          1.2	           80 
 19	   63.8015378	          6.7	           80 
 20	   63.8013439	          1.8	           80 
 21	   63.8010651	          1.2	           80 
 22	   63.8012107	          1.2	           80 
 23	   63.8014638	          1.2	           80 
 24	   63.8010241	          1.8	           80 
 25	   63.7996074	          1.8	           80 
 26	   63.7977200	          1.8	           80 
 27	   63.7960357	          1.8	           80 
 28	   63.7948204	          1.8	           80 
 29	   63.7938202	          1.8	           80 
 30	   63.7927079	          1.2	           80 
 31	   63.7914762	          1.8	           80 
 32	   63.7904434	          3.0	           80 


2013-12-20  14:18:08 -> meas. 3/33 
-------------------------------------

Measurement parameters (Pr/NCY/MCF/MDA/Period) : 
32	80	638003449	900	60	
Mean value:
63.8015573	Mhz
1.49852442	T
Max value:	at probe #:
63.8100136	9
Min value:	at probe #:
63.7903777	32
diff max-min:	ppm of mean value
307.8


	      NMR f. [MHz]	       RMS [Hz]	   Valid cycles

  1	   63.8020693	          2.4	           80 
  2	   63.8029291	          1.2	           80 
  3	   63.8039775	          1.2	           80 
  4	   63.8048960	          1.2	           80 
  5	   63.8056780	          1.8	           80 
  6	   63.8066110	          2.4	           80 
  7	   63.8079037	          2.4	           80 
  8	   63.8092819	          1.8	           80 
  9	   63.8100136	          1.2	           80 
 10	   63.8095439	          3.6	           80 
 11	   63.8082409	          2.4	           80 
 12	   63.8068055	          3.0	           80 
 13	   63.8056017	          1.8	           80 
 14	   63.8042711	          1.2	           80 
 15	   63.8025811	          1.8	           80 
 16	   63.8010649	          1.8	           80 
 17	   63.8003826	          1.2	           80 
 18	   63.8005019	          1.2	           80 
 19	   63.8007123	          2.4	           80 
 20	   63.8005178	          1.8	           80 
 21	   63.8002648	          1.2	           80 
 22	   63.8004657	          1.2	           80 
 23	   63.8007889	          1.8	           80 
 24	   63.8004285	          1.2	           80 
 25	   63.7990837	          1.8	           80 
 26	   63.7972664	          1.8	           80 
 27	   63.7956485	          1.2	           80 
 28	   63.7944989	          1.8	           80 
 29	   63.7935633	          1.2	           80 
 30	   63.7925161	          1.8	           80 
 31	   63.7913483	          2.4	           80 
 32	   63.7903777	          2.4	           80 


2013-12-20  14:07:28 -> meas. 4/33 
-------------------------------------

Measurement parameters (Pr/NCY/MCF/MDA/Period) : 
32	80	638003449	900	60	
Mean value:
63.8010301	Mhz
1.49851204	T
Max value:	at probe #:
63.8096946	9
Min value:	at probe #:
63.7903365	32
diff max-min:	ppm of mean value
303.4


	      NMR f. [MHz]	       RMS [Hz]	   Valid cycles

  1	   63.8020908	          2.4	           80 
  2	   63.8029641	          1.2	           80 
  3	   63.8040174	          1.2	           80 
  4	   63.8049243	          1.2	           80 
  5	   63.8056756	          2.4	           80 
  6	   63.8065563	          1.8	           80 
  7	   63.8077764	          1.8	           80 
  8	   63.8090686	          1.8	           80 
  9	   63.8096946	          1.2	           80 
 10	   63.8091031	          3.0	           80 
 11	   63.8076735	          1.8	           80 
 12	   63.8060943	          1.8	           80 
 13	   63.8047762	          1.2	           80 
 14	   63.8033590	          1.2	           80 
 15	   63.8016063	          1.8	           80 
 16	   63.8000531	          1.8	           80 
 17	   63.7993204	          1.2	           80 
 18	   63.7994004	          1.2	           80 
 19	   63.7995973	          1.8	           80 
 20	   63.7994194	          1.8	           80 
 21	   63.7992149	          1.2	           80 
 22	   63.7994877	          1.2	           80 
 23	   63.7999044	          1.2	           80 
 24	   63.7996485	          1.2	           80 
 25	   63.7984064	          1.8	           80 
 26	   63.7966923	          1.2	           80 
 27	   63.7951733	          1.2	           80 
 28	   63.7941178	          1.8	           80 
 29	   63.7932719	          1.2	           80 
 30	   63.7923114	          1.8	           80 
 31	   63.7912284	          1.8	           80 
 32	   63.7903365	          2.4	           80 


2013-12-20  14:07:40 -> meas. 5/33 
-------------------------------------

Measurement parameters (Pr/NCY/MCF/MDA/Period) : 
32	80	638003449	900	60	
Mean value:
63.8004487	Mhz
1.49849839	T
Max value:	at probe #:
63.8093074	9
Min value:	at probe #:
63.7902707	32
diff max-min:	ppm of mean value
298.4


	      NMR f. [MHz]	       RMS [Hz]	   Valid cycles

  1	   63.8021043	          2.4	           80 
  2	   63.8029850	          1.2	           80 
  3	   63.8040346	          1.2	           80 
  4	   63.8049237	          1.2	           80 
  5	   63.8056375	          2.4	           80 
  6	   63.8064531	          2.4	           80 
  7	   63.8075902	          2.4	           80 
  8	   63.8087877	          1.8	           80 
  9	   63.8093074	          1.8	           80 
 10	   63.8086071	          3.0	           80 
 11	   63.8070693	          3.6	           80 
 12	   63.8053795	          1.8	           80 
 13	   63.8039507	          1.2	           80 
 14	   63.8024499	          1.2	           80 
 15	   63.8006369	          1.8	           80 
 16	   63.7990260	          1.8	           80 
 17	   63.7982380	          1.2	           80 
 18	   63.7982694	          1.2	           80 
 19	   63.7984362	          1.8	           80 
 20	   63.7982589	          1.8	           80 
 21	   63.7980802	          1.2	           80 
 22	   63.7983979	          1.2	           80 
 23	   63.7988822	          1.8	           80 
 24	   63.7987185	          1.2	           80 
 25	   63.7975827	          1.8	           80 
 26	   63.7959835	          1.2	           80 
 27	   63.7945875	          1.2	           80 
 28	   63.7936500	          1.8	           80 
 29	   63.7929197	          1.2	           80 
 30	   63.7920631	          1.2	           80 
 31	   63.7910766	          2.4	           80 
 32	   63.7902707	          1.8	           80 


2013-12-20  14:07:53 -> meas. 6/33 
-------------------------------------

Measurement parameters (Pr/NCY/MCF/MDA/Period) : 
32	80	638003449	900	60	
Mean value:
63.7998895	Mhz
1.49848525	T
Max value:	at probe #:
63.8089171	9
Min value:	at probe #:
63.7902062	32
diff max-min:	ppm of mean value
293.3


	      NMR f. [MHz]	       RMS [Hz]	   Valid cycles

  1	   63.8021123	          1.8	           80 
  2	   63.8029973	          1.2	           80 
  3	   63.8040414	          1.8	           80 
  4	   63.8049095	          1.2	           80 
  5	   63.8055821	          1.8	           80 
  6	   63.8063289	          1.8	           80 
  7	   63.8073800	          2.4	           80 
  8	   63.8084884	          1.8	           80 
  9	   63.8089171	          1.8	           80 
 10	   63.8081418	          3.6	           80 
 11	   63.8065247	          1.8	           80 
 12	   63.8047593	          1.2	           80 
 13	   63.8032531	          1.2	           80 
 14	   63.8016785	          1.2	           80 
 15	   63.7998071	          1.8	           80 
 16	   63.7981298	          1.8	           80 
 17	   63.7972791	          1.2	           80 
 18	   63.7972534	          1.2	           80 
 19	   63.7973796	          1.8	           80 
 20	   63.7971765	          1.8	           80 
 21	   63.7969855	          1.2	           80 
 22	   63.7973069	          1.2	           80 
 23	   63.7978218	          2.4	           80 
 24	   63.7977246	          1.2	           80 
 25	   63.7966865	          1.2	           80 
 26	   63.7952134	          1.2	           80 
 27	   63.7939514	          1.2	           80 
 28	   63.7931521	          1.8	           80 
 29	   63.7925466	          1.8	           80 
 30	   63.7918056	          1.8	           80 
 31	   63.7909229	          1.8	           80 
 32	   63.7902062	          2.4	           80 


2013-12-20  14:08:06 -> meas. 7/33 
-------------------------------------

Measurement parameters (Pr/NCY/MCF/MDA/Period) : 
32	80	638003449	900	60	
Mean value:
63.7993247	Mhz
1.49847199	T
Max value:	at probe #:
63.8085304	9
Min value:	at probe #:
63.7901343	32
diff max-min:	ppm of mean value
288.3


	      NMR f. [MHz]	       RMS [Hz]	   Valid cycles

  1	   63.8021178	          1.8	           80 
  2	   63.8030047	          1.2	           80 
  3	   63.8040432	          1.8	           80 
  4	   63.8048936	          1.2	           80 
  5	   63.8055262	          1.8	           80 
  6	   63.8062072	          1.2	           80 
  7	   63.8071716	          2.4	           80 
  8	   63.8081890	          1.8	           80 
  9	   63.8085304	          1.8	           80 
 10	   63.8076845	          3.6	           80 
 11	   63.8060022	          1.8	           80 
 12	   63.8041686	          1.2	           80 
 13	   63.8025800	          1.2	           80 
 14	   63.8009212	          1.2	           80 
 15	   63.7989712	          1.8	           80 
 16	   63.7972219	          1.8	           80 
 17	   63.7963049	          1.2	           80 
 18	   63.7962275	          1.2	           80 
 19	   63.7963150	          1.8	           80 
 20	   63.7960928	          1.8	           80 
 21	   63.7958944	          1.2	           80 
 22	   63.7962103	          1.2	           80 
 23	   63.7967400	          1.2	           80 
 24	   63.7966937	          1.2	           80 
 25	   63.7957504	          1.2	           80 
 26	   63.7944051	          1.8	           80 
 27	   63.7932912	          1.2	           80 
 28	   63.7926370	          2.4	           80 
 29	   63.7921624	          1.8	           80 
 30	   63.7915388	          1.8	           80 
 31	   63.7907601	          1.8	           80 
 32	   63.7901343	          2.4	           80 


2013-12-20  14:08:21 -> meas. 8/33 
-------------------------------------

Measurement parameters (Pr/NCY/MCF/MDA/Period) : 
32	80	638003449	900	60	
Mean value:
63.7987595	Mhz
1.49845871	T
Max value:	at probe #:
63.8081825	9
Min value:	at probe #:
63.7900697	32
diff max-min:	ppm of mean value
283.9


	      NMR f. [MHz]	       RMS [Hz]	   Valid cycles

  1	   63.8021166	          1.8	           80 
  2	   63.8030047	          1.8	           80 
  3	   63.8040420	          1.8	           80 
  4	   63.8048807	          1.8	           80 
  5	   63.8054844	          1.8	           80 
  6	   63.8061119	          1.8	           80 
  7	   63.8070001	          2.4	           80 
  8	   63.8079321	          1.8	           80 
  9	   63.8081825	          1.2	           80 
 10	   63.8072499	          3.6	           80 
 11	   63.8054877	          1.8	           80 
 12	   63.8035385	          1.8	           80 
 13	   63.8018264	          1.2	           80 
 14	   63.8000514	          1.2	           80 
 15	   63.7979932	          2.4	           80 
 16	   63.7961536	          1.8	           80 
 17	   63.7951855	          1.8	           80 
 18	   63.7950830	          1.2	           80 
 19	   63.7951797	          1.8	           80 
 20	   63.7949852	          1.2	           80 
 21	   63.7948194	          1.2	           80 
 22	   63.7951690	          1.2	           80 
 23	   63.7957393	          1.2	           80 
 24	   63.7957650	          1.2	           80 
 25	   63.7949218	          1.2	           80 
 26	   63.7936927	          1.8	           80 
 27	   63.7927116	          1.2	           80 
 28	   63.7921834	          1.8	           80 
 29	   63.7918244	          1.8	           80 
 30	   63.7913015	          1.8	           80 
 31	   63.7906156	          1.8	           80 
 32	   63.7900697	          1.8	           80 


2013-12-20  14:17:46 -> meas. 9/33 
-------------------------------------

Measurement parameters (Pr/NCY/MCF/MDA/Period) : 
32	80	638003449	900	60	
Mean value:
63.7981278	Mhz
1.49844387	T
Max value:	at probe #:
63.8078426	9
Min value:	at probe #:
63.7900033	32
diff max-min:	ppm of mean value
279.6


	      NMR f. [MHz]	       RMS [Hz]	   Valid cycles

  1	   63.8021068	          2.4	           80 
  2	   63.8029942	          1.2	           80 
  3	   63.8040309	          8.6	           80 
  4	   63.8048677	          1.8	           80 
  5	   63.8054543	          1.8	           80 
  6	   63.8060400	          1.2	           80 
  7	   63.8068618	          3.0	           80 
  8	   63.8077034	          2.4	           80 
  9	   63.8078426	          1.8	           80 
 10	   63.8067797	          4.9	           80 
 11	   63.8048731	          2.4	           80 
 12	   63.8027431	          1.8	           80 
 13	   63.8008343	          1.2	           80 
 14	   63.7988731	          1.2	           80 
 15	   63.7966612	          1.8	           80 
 16	   63.7947294	          1.8	           80 
 17	   63.7937152	          1.2	           80 
 18	   63.7936354	          1.2	           80 
 19	   63.7938034	          2.4	           80 
 20	   63.7937140	          1.8	           80 
 21	   63.7936595	          1.2	           80 
 22	   63.7941130	          1.2	           80 
 23	   63.7947872	          1.2	           80 
 24	   63.7949173	          1.2	           80 
 25	   63.7941866	          1.2	           80 
 26	   63.7930737	          1.2	           80 
 27	   63.7922063	          1.2	           80 
 28	   63.7917857	          1.8	           80 
 29	   63.7915238	          1.8	           80 
 30	   63.7910882	          1.8	           80 
 31	   63.7904804	          1.8	           80 
 32	   63.7900033	          2.4	           80 


2013-12-20  14:08:47 -> meas. 10/33 
--------------------------------------

Measurement parameters (Pr/NCY/MCF/MDA/Period) : 
32	80	638003449	900	60	
Mean value:
63.7975073	Mhz
1.49842930	T
Max value:	at probe #:
63.8075537	9
Min value:	at probe #:
63.7899634	32
diff max-min:	ppm of mean value
275.7


	      NMR f. [MHz]	       RMS [Hz]	   Valid cycles

  1	   63.8021018	          2.4	           80 
  2	   63.8029887	          1.2	           80 
  3	   63.8040322	          1.8	           80 
  4	   63.8048727	          1.2	           80 
  5	   63.8054543	          1.8	           80 
  6	   63.8060142	          1.8	           80 
  7	   63.8067813	          2.4	           80 
  8	   63.8075375	          2.4	           80 
  9	   63.8075537	          1.8	           80 
 10	   63.8063279	          3.0	           80 
 11	   63.8042344	          2.4	           80 
 12	   63.8018648	          1.8	           80 
 13	   63.7997095	          1.2	           80 
 14	   63.7975159	          1.8	           80 
 15	   63.7951276	          1.8	           80 
 16	   63.7930944	          1.8	           80 
 17	   63.7920655	          1.2	           80 
 18	   63.7920459	          1.2	           80 
 19	   63.7923442	          1.8	           80 
 20	   63.7924250	          1.8	           80 
 21	   63.7925494	          1.2	           80 
 22	   63.7931640	          1.2	           80 
 23	   63.7939820	          1.8	           80 
 24	   63.7942449	          1.2	           80 
 25	   63.7936322	          1.2	           80 
 26	   63.7926244	          1.2	           80 
 27	   63.7918498	          1.2	           80 
 28	   63.7915048	          1.8	           80 
 29	   63.7913093	          1.2	           80 
 30	   63.7909340	          1.8	           80 
 31	   63.7903845	          1.8	           80 
 32	   63.7899634	          1.8	           80 


2013-12-20  14:09:01 -> meas. 11/33 
--------------------------------------

Measurement parameters (Pr/NCY/MCF/MDA/Period) : 
32	80	638003449	900	60	
Mean value:
63.7968815	Mhz
1.49841460	T
Max value:	at probe #:
63.8073949	8
Min value:	at probe #:
63.7899240	32
diff max-min:	ppm of mean value
273.9


	      NMR f. [MHz]	       RMS [Hz]	   Valid cycles

  1	   63.8020865	          2.4	           80 
  2	   63.8029696	          1.2	           80 
  3	   63.8040174	          1.2	           80 
  4	   63.8048671	          1.2	           80 
  5	   63.8054506	          2.4	           80 
  6	   63.8059964	          1.2	           80 
  7	   63.8067198	          2.4	           80 
  8	   63.8073949	          2.4	           80 
  9	   63.8072814	          2.4	           80 
 10	   63.8058779	          9.2	           80 
 11	   63.8035564	          1.8	           80 
 12	   63.8009071	          1.8	           80 
 13	   63.7984672	          1.2	           80 
 14	   63.7960081	          1.2	           80 
 15	   63.7934262	          1.8	           80 
 16	   63.7912916	          1.8	           80 
 17	   63.7902632	          1.2	           80 
 18	   63.7903383	          1.2	           80 
 19	   63.7908063	          1.8	           80 
