MFC-3045 Multiple measurements file: 9006map1.dam (WMFCTOOL v9.0)
=================================================================



2016/5/10  13:33:56 -> meas. 1/33 
------------------------------------

Measurement parameters (Pr/NCY/MCF/MDA/Period) : 
24	70	637938778	1100	60	
Mean value:
63.7905733	Mhz
1.49826644	T
Max value:	at probe #:
63.8099269	2
Min value:	at probe #:
63.7775250	13
diff max-min:	ppm of mean value
507.9


	      NMR f. [MHz]	       RMS [Hz]	   Valid cycles

  1	   63.8098144	          1.2	           70 
  2	   63.8099269	          1.2	           70 
  3	   63.8093737	          1.2	           70 
  4	   63.8078327	          1.2	           70 
  5	   63.8058086	          0.6	           70 
  6	   63.8033143	          1.2	           70 
  7	   63.7990601	          1.2	           70 
  8	   63.7933744	          1.2	           70 
  9	   63.7882007	          1.2	           70 
 10	   63.7839398	          1.2	           70 
 11	   63.7800415	          1.2	           70 
 12	   63.7777408	          0.6	           70 
 13	   63.7775250	          1.2	           70 
 14	   63.7787366	          1.2	           70 
 15	   63.7802511	          1.2	           70 
 16	   63.7809875	          1.2	           70 
 17	   63.7821812	          1.2	           70 
 18	   63.7842299	          1.2	           70 
 19	   63.7856768	          1.2	           70 
 20	   63.7862202	          1.2	           70 
 21	   63.7868318	          1.2	           70 
 22	   63.7875344	          1.2	           70 
 23	   63.7877053	          1.2	           70 
 24	   63.7874514	          1.8	           70 


2016/5/10  13:34:18 -> meas. 2/33 
------------------------------------

Measurement parameters (Pr/NCY/MCF/MDA/Period) : 
24	70	637938778	1100	60	
Mean value:
63.7892037	Mhz
1.49823427	T
Max value:	at probe #:
63.8096804	1
Min value:	at probe #:
63.7749533	13
diff max-min:	ppm of mean value
544.4


	      NMR f. [MHz]	       RMS [Hz]	   Valid cycles

  1	   63.8096804	          1.2	           70 
  2	   63.8096214	          1.2	           70 
  3	   63.8088875	          1.2	           70 
  4	   63.8071498	          1.8	           70 
  5	   63.8048927	          1.2	           70 
  6	   63.8021126	          1.2	           70 
  7	   63.7975240	          1.2	           70 
  8	   63.7914830	          1.2	           70 
  9	   63.7859756	          1.2	           70 
 10	   63.7814682	          1.8	           70 
 11	   63.7774359	          1.8	           70 
 12	   63.7751002	          2.4	           70 
 13	   63.7749533	          1.8	           70 
 14	   63.7763381	          1.8	           70 
 15	   63.7780832	          1.2	           70 
 16	   63.7790826	          1.2	           70 
 17	   63.7805523	          1.8	           70 
 18	   63.7828592	          1.2	           70 
 19	   63.7845428	          1.2	           70 
 20	   63.7853117	          1.2	           70 
 21	   63.7861329	          1.2	           70 
 22	   63.7870230	          1.8	           70 
 23	   63.7873752	          1.8	           70 
 24	   63.7873033	          1.8	           70 


2016/5/10  13:34:28 -> meas. 3/33 
------------------------------------

Measurement parameters (Pr/NCY/MCF/MDA/Period) : 
24	70	637938778	1100	60	
Mean value:
63.7880051	Mhz
1.49820612	T
Max value:	at probe #:
63.8095679	1
Min value:	at probe #:
63.7726820	13
diff max-min:	ppm of mean value
578.3


	      NMR f. [MHz]	       RMS [Hz]	   Valid cycles

  1	   63.8095679	          1.2	           70 
  2	   63.8093651	          1.2	           70 
  3	   63.8084830	          1.2	           70 
  4	   63.8065788	          1.2	           70 
  5	   63.8041201	          1.2	           70 
  6	   63.8010947	          0.6	           70 
  7	   63.7962259	          1.2	           70 
  8	   63.7898837	          1.2	           70 
  9	   63.7840818	          0.6	           70 
 10	   63.7793463	          1.8	           70 
 11	   63.7751874	          1.2	           70 
 12	   63.7728019	          1.2	           70 
 13	   63.7726820	          1.2	           70 
 14	   63.7741708	          1.2	           70 
 15	   63.7760916	          1.8	           70 
 16	   63.7773363	          1.2	           70 
 17	   63.7790789	          1.2	           70 
 18	   63.7816341	          0.6	           70 
 19	   63.7835390	          1.2	           70 
 20	   63.7845096	          0.6	           70 
 21	   63.7855146	          1.2	           70 
 22	   63.7865712	          1.2	           70 
 23	   63.7870838	          9.2	           70 
 24	   63.7871729	          1.2	           70 


2016/5/10  13:34:38 -> meas. 4/33 
------------------------------------

Measurement parameters (Pr/NCY/MCF/MDA/Period) : 
24	70	637938778	1100	60	
Mean value:
63.7870852	Mhz
1.49818451	T
Max value:	at probe #:
63.8094800	1
Min value:	at probe #:
63.7709720	13
diff max-min:	ppm of mean value
603.7


	      NMR f. [MHz]	       RMS [Hz]	   Valid cycles

  1	   63.8094800	          1.2	           70 
  2	   63.8091684	          1.2	           70 
  3	   63.8081745	          1.2	           70 
  4	   63.8061461	          1.2	           70 
  5	   63.8035374	          1.2	           70 
  6	   63.8003331	          1.2	           70 
  7	   63.7952639	          1.2	           70 
  8	   63.7887109	          1.2	           70 
  9	   63.7826957	          1.2	           70 
 10	   63.7777863	          1.2	           70 
 11	   63.7735198	          1.2	           70 
 12	   63.7710839	          1.2	           70 
 13	   63.7709720	          1.2	           70 
 14	   63.7725105	          1.2	           70 
 15	   63.7745365	          0.6	           70 
 16	   63.7759484	          1.2	           70 
 17	   63.7778926	          1.2	           70 
 18	   63.7806328	          1.2	           70 
 19	   63.7827092	          1.2	           70 
 20	   63.7838427	          1.2	           70 
 21	   63.7849988	          1.2	           70 
 22	   63.7861950	          1.2	           70 
 23	   63.7868398	          1.2	           70 
 24	   63.7870660	          1.2	           70 


2016/5/10  13:34:49 -> meas. 5/33 
------------------------------------

Measurement parameters (Pr/NCY/MCF/MDA/Period) : 
24	70	637938778	1100	60	
Mean value:
63.7865037	Mhz
1.49817086	T
Max value:	at probe #:
63.8094149	1
Min value:	at probe #:
63.7700107	13
diff max-min:	ppm of mean value
617.8


	      NMR f. [MHz]	       RMS [Hz]	   Valid cycles

  1	   63.8094149	          1.2	           70 
  2	   63.8090270	          1.2	           70 
  3	   63.8079630	          1.2	           70 
  4	   63.8058590	          0.6	           70 
  5	   63.8031581	          1.2	           70 
  6	   63.7998530	          1.2	           70 
  7	   63.7946843	          1.2	           70 
  8	   63.7880298	          0.6	           70 
  9	   63.7819083	          1.2	           70 
 10	   63.7769141	          1.2	           70 
 11	   63.7725966	          1.2	           70 
 12	   63.7701342	          1.2	           70 
 13	   63.7700107	          1.2	           70 
 14	   63.7715357	          1.2	           70 
 15	   63.7735653	          1.2	           70 
 16	   63.7750246	          1.2	           70 
 17	   63.7770499	          1.2	           70 
 18	   63.7798823	          1.2	           70 
 19	   63.7820619	          1.2	           70 
 20	   63.7833116	          1.2	           70 
 21	   63.7845858	          1.2	           70 
 22	   63.7858926	          1.2	           70 
 23	   63.7866456	          1.2	           70 
 24	   63.7869806	          1.8	           70 


2016/5/10  13:34:59 -> meas. 6/33 
------------------------------------

Measurement parameters (Pr/NCY/MCF/MDA/Period) : 
24	70	637938778	1100	60	
Mean value:
63.7863152	Mhz
1.49816643	T
Max value:	at probe #:
63.8093811	1
Min value:	at probe #:
63.7698595	13
diff max-min:	ppm of mean value
619.6


	      NMR f. [MHz]	       RMS [Hz]	   Valid cycles

  1	   63.8093811	          1.2	           70 
  2	   63.8089594	          1.2	           70 
  3	   63.8078702	          0.6	           70 
  4	   63.8057453	          1.2	           70 
  5	   63.8030223	          1.2	           70 
  6	   63.7997012	          1.2	           70 
  7	   63.7945349	          0.6	           70 
  8	   63.7878933	          1.2	           70 
  9	   63.7817841	          1.2	           70 
 10	   63.7768065	          1.2	           70 
 11	   63.7725050	          1.2	           70 
 12	   63.7700346	          0.6	           70 
 13	   63.7698595	          1.2	           70 
 14	   63.7713132	          1.2	           70 
 15	   63.7732611	          1.2	           70 
 16	   63.7746582	          0.6	           70 
 17	   63.7766467	          0.6	           70 
 18	   63.7794686	          1.2	           70 
 19	   63.7816722	          1.2	           70 
 20	   63.7829778	          1.2	           70 
 21	   63.7843215	          1.2	           70 
 22	   63.7856996	          1.2	           70 
 23	   63.7865220	          1.2	           70 
 24	   63.7869271	          1.8	           70 


2016/5/10  13:35:08 -> meas. 7/33 
------------------------------------

Measurement parameters (Pr/NCY/MCF/MDA/Period) : 
24	70	637938778	1100	60	
Mean value:
63.7864386	Mhz
1.49816933	T
Max value:	at probe #:
63.8093762	1
Min value:	at probe #:
63.7702996	13
diff max-min:	ppm of mean value
612.6


	      NMR f. [MHz]	       RMS [Hz]	   Valid cycles

  1	   63.8093762	          1.8	           70 
  2	   63.8089600	          1.2	           70 
  3	   63.8078905	          1.2	           70 
  4	   63.8057945	          1.2	           70 
  5	   63.8031090	          0.6	           70 
  6	   63.7998432	          1.2	           70 
  7	   63.7947543	          1.2	           70 
  8	   63.7882019	          1.2	           70 
  9	   63.7821757	          1.2	           70 
 10	   63.7772718	          1.2	           70 
 11	   63.7730176	          1.2	           70 
 12	   63.7705399	          0.6	           70 
 13	   63.7702996	          1.2	           70 
 14	   63.7716469	          1.2	           70 
 15	   63.7734621	          1.2	           70 
 16	   63.7747271	          0.6	           70 
 17	   63.7766006	          1.2	           70 
 18	   63.7793451	          1.2	           70 
 19	   63.7815161	          1.2	           70 
 20	   63.7828266	          1.2	           70 
 21	   63.7841961	          1.2	           70 
 22	   63.7856068	          1.2	           70 
 23	   63.7864636	          1.2	           70 
 24	   63.7869019	          2.4	           70 


2016/5/10  13:35:19 -> meas. 8/33 
------------------------------------

Measurement parameters (Pr/NCY/MCF/MDA/Period) : 
24	70	637938778	1100	60	
Mean value:
63.7867793	Mhz
1.49817733	T
Max value:	at probe #:
63.8094032	1
Min value:	at probe #:
63.7710562	13
diff max-min:	ppm of mean value
601.2


	      NMR f. [MHz]	       RMS [Hz]	   Valid cycles

  1	   63.8094032	          1.2	           70 
  2	   63.8090301	          1.2	           70 
  3	   63.8080196	          1.2	           70 
  4	   63.8059936	          1.2	           70 
  5	   63.8033911	          1.2	           70 
  6	   63.8002218	          1.2	           70 
  7	   63.7952405	          1.2	           70 
  8	   63.7887963	          1.2	           70 
  9	   63.7828678	          1.2	           70 
 10	   63.7780401	          1.2	           70 
 11	   63.7738266	          1.2	           70 
 12	   63.7713451	          1.2	           70 
 13	   63.7710562	          1.2	           70 
 14	   63.7723028	          1.2	           70 
 15	   63.7739858	          1.2	           70 
 16	   63.7751100	          1.2	           70 
 17	   63.7768501	          1.2	           70 
 18	   63.7794963	          1.2	           70 
 19	   63.7816040	          1.2	           70 
 20	   63.7828776	          1.2	           70 
 21	   63.7842268	          1.2	           70 
 22	   63.7856277	          1.2	           70 
 23	   63.7864790	          1.8	           70 
 24	   63.7869117	          3.0	           70 


2016/5/10  13:35:29 -> meas. 9/33 
------------------------------------

Measurement parameters (Pr/NCY/MCF/MDA/Period) : 
24	70	637938778	1100	60	
Mean value:
63.7872275	Mhz
1.49818786	T
Max value:	at probe #:
63.8094536	1
Min value:	at probe #:
63.7718553	13
diff max-min:	ppm of mean value
589.4


	      NMR f. [MHz]	       RMS [Hz]	   Valid cycles

  1	   63.8094536	          1.2	           70 
  2	   63.8091555	          1.2	           70 
  3	   63.8082329	          1.2	           70 
  4	   63.8063053	          1.2	           70 
  5	   63.8038060	          1.2	           70 
  6	   63.8007431	          1.8	           70 
  7	   63.7958663	          1.2	           70 
  8	   63.7895105	          1.2	           70 
  9	   63.7836453	          1.2	           70 
 10	   63.7788620	          1.2	           70 
 11	   63.7746662	          1.2	           70 
 12	   63.7721762	          0.6	           70 
 13	   63.7718553	          0.6	           70 
 14	   63.7730355	          0.6	           70 
 15	   63.7746330	          1.2	           70 
 16	   63.7756601	          1.2	           70 
 17	   63.7773001	          1.2	           70 
 18	   63.7798626	          1.2	           70 
 19	   63.7819021	          1.2	           70 
 20	   63.7831118	          0.6	           70 
 21	   63.7844045	          1.2	           70 
 22	   63.7857567	          1.2	           70 
 23	   63.7865632	          1.8	           70 
 24	   63.7869517	          2.4	           70 


2016/5/10  13:35:38 -> meas. 10/33 
-------------------------------------

Measurement parameters (Pr/NCY/MCF/MDA/Period) : 
24	70	637938778	1100	60	
Mean value:
63.7877400	Mhz
1.49819989	T
Max value:	at probe #:
63.8095304	1
Min value:	at probe #:
63.7725868	13
diff max-min:	ppm of mean value
579.2


	      NMR f. [MHz]	       RMS [Hz]	   Valid cycles

  1	   63.8095304	          1.2	           70 
  2	   63.8093374	          1.2	           70 
  3	   63.8085298	          1.2	           70 
  4	   63.8067251	          1.2	           70 
  5	   63.8043445	          1.2	           70 
  6	   63.8013922	          1.8	           70 
  7	   63.7965990	          2.4	           70 
  8	   63.7902863	          1.2	           70 
  9	   63.7844364	          1.2	           70 
 10	   63.7796530	          0.6	           70 
 11	   63.7754438	          1.2	           70 
 12	   63.7729353	          0.6	           70 
 13	   63.7725868	          1.2	           70 
 14	   63.7737423	          1.2	           70 
 15	   63.7753141	          1.2	           70 
 16	   63.7762975	          1.2	           70 
 17	   63.7778828	          1.2	           70 
 18	   63.7803974	          1.2	           70 
 19	   63.7823822	          1.2	           70 
 20	   63.7835138	          1.2	           70 
 21	   63.7847167	          1.2	           70 
 22	   63.7859829	          1.2	           70 
 23	   63.7867113	          1.8	           70 
 24	   63.7870187	          3.0	           70 


2016/5/10  13:35:49 -> meas. 11/33 
-------------------------------------

Measurement parameters (Pr/NCY/MCF/MDA/Period) : 
24	70	637938778	1100	60	
Mean value:
63.7882640	Mhz
1.49821220	T
Max value:	at probe #:
63.8096269	1
Min value:	at probe #:
63.7731916	13
diff max-min:	ppm of mean value
571.2


	      NMR f. [MHz]	       RMS [Hz]	   Valid cycles

  1	   63.8096269	          1.8	           70 
  2	   63.8095550	          1.2	           70 
  3	   63.8088752	          1.2	           70 
  4	   63.8072002	          1.2	           70 
  5	   63.8049407	          1.2	           70 
  6	   63.8020868	          1.2	           70 
  7	   63.7973495	          1.2	           70 
  8	   63.7910411	          1.2	           70 
  9	   63.7851642	          1.2	           70 
 10	   63.7803445	          1.2	           70 
 11	   63.7760941	          1.2	           70 
 12	   63.7735536	          1.2	           70 
 13	   63.7731916	          1.2	           70 
 14	   63.7743558	          1.2	           70 
 15	   63.7759503	          1.2	           70 
 16	   63.7769503	          1.2	           70 
 17	   63.7785362	          1.2	           70 
 18	   63.7810422	          1.2	           70 
 19	   63.7829895	          1.2	           70 
 20	   63.7840393	          1.2	           70 
 21	   63.7851347	          1.8	           70 
 22	   63.7862915	          1.2	           70 
 23	   63.7869123	          1.8	           70 
 24	   63.7871115	          2.4	           70 


2016/5/10  13:35:59 -> meas. 12/33 
-------------------------------------

Measurement parameters (Pr/NCY/MCF/MDA/Period) : 
24	70	637938778	1100	60	
Mean value:
63.7888518	Mhz
1.49822601	T
Max value:	at probe #:
63.8098218	2
Min value:	at probe #:
63.7737866	13
diff max-min:	ppm of mean value
564.9


	      NMR f. [MHz]	       RMS [Hz]	   Valid cycles

  1	   63.8097468	          1.2	           70 
  2	   63.8098218	          1.2	           70 
  3	   63.8092889	          1.2	           70 
  4	   63.8077559	          1.2	           70 
  5	   63.8056230	          1.2	           70 
  6	   63.8028698	          1.2	           70 
  7	   63.7981762	          1.2	           70 
  8	   63.7918525	          1.2	           70 
  9	   63.7859209	          1.2	           70 
 10	   63.7810348	          1.2	           70 
 11	   63.7767155	          1.2	           70 
 12	   63.7741370	          1.2	           70 
 13	   63.7737866	          1.2	           70 
 14	   63.7749889	          0.6	           70 
 15	   63.7766448	          1.2	           70 
 16	   63.7776978	          1.2	           70 
 17	   63.7793144	          1.2	           70 
 18	   63.7818327	          1.2	           70 
 19	   63.7837480	          1.2	           70 
 20	   63.7847069	          1.2	           70 
 21	   63.7856744	          1.8	           70 
 22	   63.7866935	          1.2	           70 
 23	   63.7871773	          1.8	           70 
 24	   63.7872344	          3.0	           70 


2016/5/10  13:36:11 -> meas. 13/33 
-------------------------------------

Measurement parameters (Pr/NCY/MCF/MDA/Period) : 
24	70	637938778	1100	60	
Mean value:
63.7894355	Mhz
1.49823971	T
Max value:	at probe #:
63.8100880	2
Min value:	at probe #:
63.7743712	13
diff max-min:	ppm of mean value
559.9


	      NMR f. [MHz]	       RMS [Hz]	   Valid cycles

  1	   63.8098697	          1.2	           70 
  2	   63.8100880	          1.2	           70 
  3	   63.8096939	          1.2	           70 
  4	   63.8082876	          1.2	           70 
  5	   63.8062690	          1.2	           70 
  6	   63.8036025	          1.2	           70 
  7	   63.7989470	          1.2	           70 
  8	   63.7926085	          1.2	           70 
  9	   63.7866283	          1.2	           70 
 10	   63.7816784	          1.2	           70 
 11	   63.7772958	          0.6	           70 
 12	   63.7746920	          1.2	           70 
 13	   63.7743712	          1.2	           70 
 14	   63.7756355	          1.2	           70 
 15	   63.7773726	          1.2	           70 
 16	   63.7784882	          1.2	           70 
 17	   63.7801325	          1.2	           70 
 18	   63.7826533	          1.2	           70 
 19	   63.7845299	          1.2	           70 
 20	   63.7853990	          1.2	           70 
 21	   63.7862423	          1.8	           70 
 22	   63.7871250	          1.8	           70 
 23	   63.7874668	          1.8	           70 
 24	   63.7873739	          2.4	           70 


2016/5/10  13:36:21 -> meas. 14/33 
-------------------------------------

Measurement parameters (Pr/NCY/MCF/MDA/Period) : 
24	70	637938778	1100	60	
Mean value:
63.7900893	Mhz
1.49825507	T
Max value:	at probe #:
63.8103781	2
Min value:	at probe #:
63.7750725	13
diff max-min:	ppm of mean value
553.5


	      NMR f. [MHz]	       RMS [Hz]	   Valid cycles

  1	   63.8100044	          1.2	           70 
  2	   63.8103781	          0.6	           70 
  3	   63.8101328	          1.2	           70 
  4	   63.8088574	          1.2	           70 
